" File: 160128_ReferenceSpectra\2.IRR
" RAD->  Wave:366.44nm  Pix:434  Val:  0.000  Time:60ms  Avg:5  Sm:1  Sg:1  Tc:off  SNAP  Xt:1  Ch:1  Xtrig wnmcal >RAD-IS6.CAL
 180.00  0.0000E+000
 180.50  0.0000E+000
 181.00  0.0000E+000
 181.50  0.0000E+000
 182.00  0.0000E+000
 182.50  0.0000E+000
 183.00  0.0000E+000
 183.50  0.0000E+000
 184.00  0.0000E+000
 184.50  0.0000E+000
 185.00  0.0000E+000
 185.50  0.0000E+000
 186.00  0.0000E+000
 186.50  0.0000E+000
 187.00  0.0000E+000
 187.50  0.0000E+000
 188.00  0.0000E+000
 188.50  0.0000E+000
 189.00  0.0000E+000
 189.50  0.0000E+000
 190.00  0.0000E+000
 190.50  0.0000E+000
 191.00  0.0000E+000
 191.50  0.0000E+000
 192.00  0.0000E+000
 192.50  0.0000E+000
 193.00  0.0000E+000
 193.50  0.0000E+000
 194.00  0.0000E+000
 194.50  0.0000E+000
 195.00  0.0000E+000
 195.50  0.0000E+000
 196.00  0.0000E+000
 196.50  0.0000E+000
 197.00  0.0000E+000
 197.50  0.0000E+000
 198.00  0.0000E+000
 198.50  0.0000E+000
 199.00  0.0000E+000
 199.50  0.0000E+000
 200.00  0.0000E+000
 200.50  0.0000E+000
 201.00  0.0000E+000
 201.50  0.0000E+000
 202.00  0.0000E+000
 202.50  0.0000E+000
 203.00  0.0000E+000
 203.50  0.0000E+000
 204.00  0.0000E+000
 204.50  0.0000E+000
 205.00  0.0000E+000
 205.50  0.0000E+000
 206.00  0.0000E+000
 206.50  0.0000E+000
 207.00  0.0000E+000
 207.50  0.0000E+000
 208.00  0.0000E+000
 208.50  0.0000E+000
 209.00  0.0000E+000
 209.50  0.0000E+000
 210.00  0.0000E+000
 210.50  0.0000E+000
 211.00  0.0000E+000
 211.50  0.0000E+000
 212.00  0.0000E+000
 212.50  0.0000E+000
 213.00  0.0000E+000
 213.50  0.0000E+000
 214.00  0.0000E+000
 214.50  0.0000E+000
 215.00  0.0000E+000
 215.50  0.0000E+000
 216.00  0.0000E+000
 216.50  0.0000E+000
 217.00  0.0000E+000
 217.50  0.0000E+000
 218.00  0.0000E+000
 218.50  0.0000E+000
 219.00  0.0000E+000
 219.50  0.0000E+000
 220.00  0.0000E+000
 220.50  0.0000E+000
 221.00  0.0000E+000
 221.50  0.0000E+000
 222.00  0.0000E+000
 222.50  0.0000E+000
 223.00  0.0000E+000
 223.50  0.0000E+000
 224.00  0.0000E+000
 224.50  0.0000E+000
 225.00  0.0000E+000
 225.50  0.0000E+000
 226.00  0.0000E+000
 226.50  0.0000E+000
 227.00  0.0000E+000
 227.50  0.0000E+000
 228.00  0.0000E+000
 228.50  0.0000E+000
 229.00  0.0000E+000
 229.50  0.0000E+000
 230.00  0.0000E+000
 230.50  0.0000E+000
 231.00  0.0000E+000
 231.50  0.0000E+000
 232.00  0.0000E+000
 232.50  0.0000E+000
 233.00  0.0000E+000
 233.50  0.0000E+000
 234.00  0.0000E+000
 234.50  0.0000E+000
 235.00  0.0000E+000
 235.50  0.0000E+000
 236.00  0.0000E+000
 236.50  0.0000E+000
 237.00  0.0000E+000
 237.50  0.0000E+000
 238.00  0.0000E+000
 238.50  0.0000E+000
 239.00  0.0000E+000
 239.50  0.0000E+000
 240.00  0.0000E+000
 240.50  0.0000E+000
 241.00  0.0000E+000
 241.50  0.0000E+000
 242.00  0.0000E+000
 242.50  0.0000E+000
 243.00  0.0000E+000
 243.50  0.0000E+000
 244.00  0.0000E+000
 244.50  0.0000E+000
 245.00  0.0000E+000
 245.50  0.0000E+000
 246.00  0.0000E+000
 246.50  0.0000E+000
 247.00  0.0000E+000
 247.50  0.0000E+000
 248.00  0.0000E+000
 248.50  0.0000E+000
 249.00  0.0000E+000
 249.50  0.0000E+000
 250.00  0.0000E+000
 250.50  0.0000E+000
 251.00  0.0000E+000
 251.50  0.0000E+000
 252.00  0.0000E+000
 252.50  0.0000E+000
 253.00  0.0000E+000
 253.50  0.0000E+000
 254.00  0.0000E+000
 254.50  0.0000E+000
 255.00  0.0000E+000
 255.50  0.0000E+000
 256.00  0.0000E+000
 256.50  0.0000E+000
 257.00  0.0000E+000
 257.50  0.0000E+000
 258.00  0.0000E+000
 258.50  0.0000E+000
 259.00  0.0000E+000
 259.50  0.0000E+000
 260.00  0.0000E+000
 260.50  0.0000E+000
 261.00  0.0000E+000
 261.50  0.0000E+000
 262.00  0.0000E+000
 262.50  0.0000E+000
 263.00  0.0000E+000
 263.50  0.0000E+000
 264.00  0.0000E+000
 264.50  0.0000E+000
 265.00  0.0000E+000
 265.50  0.0000E+000
 266.00  0.0000E+000
 266.50  0.0000E+000
 267.00  0.0000E+000
 267.50  0.0000E+000
 268.00  0.0000E+000
 268.50  0.0000E+000
 269.00  0.0000E+000
 269.50  0.0000E+000
 270.00  0.0000E+000
 270.50  0.0000E+000
 271.00  0.0000E+000
 271.50  0.0000E+000
 272.00  0.0000E+000
 272.50  0.0000E+000
 273.00  0.0000E+000
 273.50  0.0000E+000
 274.00  0.0000E+000
 274.50  0.0000E+000
 275.00  0.0000E+000
 275.50  0.0000E+000
 276.00  0.0000E+000
 276.50  0.0000E+000
 277.00  0.0000E+000
 277.50  0.0000E+000
 278.00  0.0000E+000
 278.50  0.0000E+000
 279.00  0.0000E+000
 279.50  0.0000E+000
 280.00  0.0000E+000
 280.50  0.0000E+000
 281.00  0.0000E+000
 281.50  0.0000E+000
 282.00  0.0000E+000
 282.50  0.0000E+000
 283.00  0.0000E+000
 283.50  0.0000E+000
 284.00  0.0000E+000
 284.50  0.0000E+000
 285.00  0.0000E+000
 285.50  0.0000E+000
 286.00  0.0000E+000
 286.50  0.0000E+000
 287.00  0.0000E+000
 287.50  0.0000E+000
 288.00  0.0000E+000
 288.50  0.0000E+000
 289.00  0.0000E+000
 289.50  0.0000E+000
 290.00  0.0000E+000
 290.50  0.0000E+000
 291.00  0.0000E+000
 291.50  0.0000E+000
 292.00  0.0000E+000
 292.50  0.0000E+000
 293.00  0.0000E+000
 293.50  0.0000E+000
 294.00  0.0000E+000
 294.50  0.0000E+000
 295.00  0.0000E+000
 295.50  0.0000E+000
 296.00  0.0000E+000
 296.50  0.0000E+000
 297.00  0.0000E+000
 297.50  0.0000E+000
 298.00  0.0000E+000
 298.50  0.0000E+000
 299.00  0.0000E+000
 299.50  0.0000E+000
 300.00  0.0000E+000
 300.50  0.0000E+000
 301.00  0.0000E+000
 301.50  0.0000E+000
 302.00  0.0000E+000
 302.50  0.0000E+000
 303.00  0.0000E+000
 303.50  0.0000E+000
 304.00  0.0000E+000
 304.50  0.0000E+000
 305.00  0.0000E+000
 305.50  0.0000E+000
 306.00  0.0000E+000
 306.50  0.0000E+000
 307.00  0.0000E+000
 307.50  0.0000E+000
 308.00  0.0000E+000
 308.50  0.0000E+000
 309.00  0.0000E+000
 309.50  0.0000E+000
 310.00  0.0000E+000
 310.50  0.0000E+000
 311.00  0.0000E+000
 311.50  0.0000E+000
 312.00  0.0000E+000
 312.50  0.0000E+000
 313.00  0.0000E+000
 313.50  0.0000E+000
 314.00  0.0000E+000
 314.50  0.0000E+000
 315.00  0.0000E+000
 315.50  0.0000E+000
 316.00  0.0000E+000
 316.50  0.0000E+000
 317.00  0.0000E+000
 317.50  0.0000E+000
 318.00  0.0000E+000
 318.50  0.0000E+000
 319.00  0.0000E+000
 319.50  0.0000E+000
 320.00  0.0000E+000
 320.50  0.0000E+000
 321.00  0.0000E+000
 321.50  0.0000E+000
 322.00  0.0000E+000
 322.50  0.0000E+000
 323.00  0.0000E+000
 323.50  0.0000E+000
 324.00  0.0000E+000
 324.50  0.0000E+000
 325.00  0.0000E+000
 325.50  0.0000E+000
 326.00  0.0000E+000
 326.50  0.0000E+000
 327.00  0.0000E+000
 327.50  0.0000E+000
 328.00  0.0000E+000
 328.50  0.0000E+000
 329.00  0.0000E+000
 329.50  0.0000E+000
 330.00  0.0000E+000
 330.50  0.0000E+000
 331.00  0.0000E+000
 331.50  0.0000E+000
 332.00  0.0000E+000
 332.50  0.0000E+000
 333.00  0.0000E+000
 333.50  0.0000E+000
 334.00  0.0000E+000
 334.50  0.0000E+000
 335.00  0.0000E+000
 335.50  0.0000E+000
 336.00  0.0000E+000
 336.50  0.0000E+000
 337.00  0.0000E+000
 337.50  0.0000E+000
 338.00  0.0000E+000
 338.50  0.0000E+000
 339.00  0.0000E+000
 339.50  0.0000E+000
 340.00  0.0000E+000
 340.50  0.0000E+000
 341.00  0.0000E+000
 341.50  0.0000E+000
 342.00  0.0000E+000
 342.50  0.0000E+000
 343.00  0.0000E+000
 343.50  0.0000E+000
 344.00  0.0000E+000
 344.50  0.0000E+000
 345.00  0.0000E+000
 345.50  0.0000E+000
 346.00  0.0000E+000
 346.50  0.0000E+000
 347.00  0.0000E+000
 347.50  0.0000E+000
 348.00  0.0000E+000
 348.50  0.0000E+000
 349.00  0.0000E+000
 349.50  0.0000E+000
 350.00  0.0000E+000
 350.50  0.0000E+000
 351.00  0.0000E+000
 351.50  0.0000E+000
 352.00  0.0000E+000
 352.50  0.0000E+000
 353.00  0.0000E+000
 353.50  0.0000E+000
 354.00  0.0000E+000
 354.50  0.0000E+000
 355.00  0.0000E+000
 355.50  0.0000E+000
 356.00  0.0000E+000
 356.50  0.0000E+000
 357.00  0.0000E+000
 357.50  0.0000E+000
 358.00  0.0000E+000
 358.50  0.0000E+000
 359.00  0.0000E+000
 359.50  6.4906E-007
 360.00  9.5115E-006
 360.50  1.6061E-005
 361.00  1.6753E-005
 361.50  1.7593E-005
 362.00  1.8366E-005
 362.50  1.9397E-005
 363.00  2.0925E-005
 363.50  2.2670E-005
 364.00  2.4581E-005
 364.50  2.6788E-005
 365.00  2.9046E-005
 365.50  3.1556E-005
 366.00  3.4415E-005
 366.50  3.7583E-005
 367.00  4.1256E-005
 367.50  4.5443E-005
 368.00  5.0142E-005
 368.50  5.5776E-005
 369.00  6.2616E-005
 369.50  7.0886E-005
 370.00  8.0760E-005
 370.50  9.2461E-005
 371.00  1.0626E-004
 371.50  1.2228E-004
 372.00  1.4069E-004
 372.50  1.6198E-004
 373.00  1.8646E-004
 373.50  2.1404E-004
 374.00  2.4544E-004
 374.50  2.8171E-004
 375.00  3.2287E-004
 375.50  3.6913E-004
 376.00  4.2106E-004
 376.50  4.7942E-004
 377.00  5.4531E-004
 377.50  6.1930E-004
 378.00  7.0161E-004
 378.50  7.9263E-004
 379.00  8.9232E-004
 379.50  1.0021E-003
 380.00  1.1239E-003
 380.50  1.2605E-003
 381.00  1.4113E-003
 381.50  1.5732E-003
 382.00  1.7439E-003
 382.50  1.9193E-003
 383.00  2.0955E-003
 383.50  2.2653E-003
 384.00  2.4246E-003
 384.50  2.5701E-003
 385.00  2.6969E-003
 385.50  2.8044E-003
 386.00  2.8865E-003
 386.50  2.9404E-003
 387.00  2.9659E-003
 387.50  2.9592E-003
 388.00  2.9265E-003
 388.50  2.8697E-003
 389.00  2.7898E-003
 389.50  2.6907E-003
 390.00  2.5762E-003
 390.50  2.4523E-003
 391.00  2.3203E-003
 391.50  2.1854E-003
 392.00  2.0494E-003
 392.50  1.9170E-003
 393.00  1.7912E-003
 393.50  1.6727E-003
 394.00  1.5627E-003
 394.50  1.4611E-003
 395.00  1.3652E-003
 395.50  1.2753E-003
 396.00  1.1895E-003
 396.50  1.1083E-003
 397.00  1.0317E-003
 397.50  9.5950E-004
 398.00  8.9212E-004
 398.50  8.2854E-004
 399.00  7.6913E-004
 399.50  7.1290E-004
 400.00  6.6017E-004
 400.50  6.1050E-004
 401.00  5.6426E-004
 401.50  5.2104E-004
 402.00  4.8095E-004
 402.50  4.4383E-004
 403.00  4.0990E-004
 403.50  3.7920E-004
 404.00  3.5174E-004
 404.50  3.2730E-004
 405.00  3.0547E-004
 405.50  2.8524E-004
 406.00  2.6670E-004
 406.50  2.4948E-004
 407.00  2.3361E-004
 407.50  2.1923E-004
 408.00  2.0585E-004
 408.50  1.9337E-004
 409.00  1.8183E-004
 409.50  1.7107E-004
 410.00  1.6093E-004
 410.50  1.5138E-004
 411.00  1.4250E-004
 411.50  1.3370E-004
 412.00  1.2496E-004
 412.50  1.1661E-004
 413.00  1.0902E-004
 413.50  1.0171E-004
 414.00  9.5217E-005
 414.50  8.8963E-005
 415.00  8.3237E-005
 415.50  7.7879E-005
 416.00  7.2964E-005
 416.50  6.8707E-005
 417.00  6.5077E-005
 417.50  6.1696E-005
 418.00  5.8639E-005
 418.50  5.6078E-005
 419.00  5.3692E-005
 419.50  5.1318E-005
 420.00  4.9107E-005
 420.50  4.7109E-005
 421.00  4.5129E-005
 421.50  4.3292E-005
 422.00  4.1493E-005
 422.50  3.9800E-005
 423.00  3.8593E-005
 423.50  3.7251E-005
 424.00  3.5962E-005
 424.50  3.4788E-005
 425.00  3.3493E-005
 425.50  3.2368E-005
 426.00  3.1343E-005
 426.50  3.0380E-005
 427.00  2.9566E-005
 427.50  2.8628E-005
 428.00  2.7481E-005
 428.50  2.6680E-005
 429.00  2.6225E-005
 429.50  2.5787E-005
 430.00  2.5606E-005
 430.50  2.5556E-005
 431.00  2.4851E-005
 431.50  2.3667E-005
 432.00  2.2510E-005
 432.50  2.1653E-005
 433.00  2.1141E-005
 433.50  2.1174E-005
 434.00  2.1256E-005
 434.50  2.1042E-005
 435.00  2.0413E-005
 435.50  1.9346E-005
 436.00  1.8469E-005
 436.50  1.7835E-005
 437.00  1.7236E-005
 437.50  1.6933E-005
 438.00  1.6599E-005
 438.50  1.6163E-005
 439.00  1.5927E-005
 439.50  1.5736E-005
 440.00  1.5682E-005
 440.50  1.5601E-005
 441.00  1.5324E-005
 441.50  1.4999E-005
 442.00  1.4721E-005
 442.50  1.4219E-005
 443.00  1.3934E-005
 443.50  1.3621E-005
 444.00  1.3296E-005
 444.50  1.3273E-005
 445.00  1.3169E-005
 445.50  1.2894E-005
 446.00  1.2668E-005
 446.50  1.2154E-005
 447.00  1.1644E-005
 447.50  1.1105E-005
 448.00  1.0587E-005
 448.50  1.0215E-005
 449.00  9.8311E-006
 449.50  9.6866E-006
 450.00  9.5254E-006
 450.50  9.4640E-006
 451.00  9.4674E-006
 451.50  9.3860E-006
 452.00  9.2059E-006
 452.50  9.0930E-006
 453.00  8.8106E-006
 453.50  8.4605E-006
 454.00  8.2962E-006
 454.50  7.9831E-006
 455.00  7.6786E-006
 455.50  7.5361E-006
 456.00  7.5316E-006
 456.50  7.5757E-006
 457.00  7.7268E-006
 457.50  7.7176E-006
 458.00  7.5547E-006
 458.50  7.4065E-006
 459.00  6.9933E-006
 459.50  6.7585E-006
 460.00  6.6009E-006
 460.50  6.5423E-006
 461.00  6.6651E-006
 461.50  6.9641E-006
 462.00  7.4111E-006
 462.50  7.7538E-006
 463.00  7.8953E-006
 463.50  7.9037E-006
 464.00  7.6276E-006
 464.50  7.1050E-006
 465.00  6.5949E-006
 465.50  6.0977E-006
 466.00  5.8128E-006
 466.50  5.6337E-006
 467.00  5.6609E-006
 467.50  5.7089E-006
 468.00  5.6322E-006
 468.50  5.5326E-006
 469.00  5.5317E-006
 469.50  5.4706E-006
 470.00  5.4551E-006
 470.50  5.3990E-006
 471.00  5.2185E-006
 471.50  4.9995E-006
 472.00  4.9113E-006
 472.50  4.9075E-006
 473.00  4.9116E-006
 473.50  4.9968E-006
 474.00  5.0887E-006
 474.50  5.0460E-006
 475.00  5.0277E-006
 475.50  5.1064E-006
 476.00  5.1196E-006
 476.50  5.1145E-006
 477.00  5.0668E-006
 477.50  5.1485E-006
 478.00  5.2540E-006
 478.50  5.3873E-006
 479.00  5.5412E-006
 479.50  5.8265E-006
 480.00  6.0424E-006
 480.50  6.1670E-006
 481.00  6.3873E-006
 481.50  6.6840E-006
 482.00  6.8055E-006
 482.50  6.9877E-006
 483.00  7.1372E-006
 483.50  7.2530E-006
 484.00  7.3982E-006
 484.50  7.5413E-006
 485.00  7.7530E-006
 485.50  8.0065E-006
 486.00  8.0482E-006
 486.50  7.9370E-006
 487.00  7.9085E-006
 487.50  7.6681E-006
 488.00  7.3087E-006
 488.50  7.1145E-006
 489.00  6.9224E-006
 489.50  6.7079E-006
 490.00  6.7878E-006
 490.50  6.9839E-006
 491.00  7.0355E-006
 491.50  7.0825E-006
 492.00  7.2009E-006
 492.50  7.2362E-006
 493.00  7.3540E-006
 493.50  7.7162E-006
 494.00  8.0640E-006
 494.50  8.1825E-006
 495.00  8.2164E-006
 495.50  8.2071E-006
 496.00  8.1028E-006
 496.50  8.0491E-006
 497.00  8.0632E-006
 497.50  8.3119E-006
 498.00  8.5430E-006
 498.50  8.5346E-006
 499.00  8.6852E-006
 499.50  8.6526E-006
 500.00  8.6241E-006
 500.50  8.6790E-006
 501.00  8.7529E-006
 501.50  8.8257E-006
 502.00  8.7995E-006
 502.50  8.7161E-006
 503.00  8.7700E-006
 503.50  8.8043E-006
 504.00  8.8323E-006
 504.50  9.1399E-006
 505.00  9.0837E-006
 505.50  8.9916E-006
 506.00  8.9966E-006
 506.50  8.9787E-006
 507.00  9.0009E-006
 507.50  9.0403E-006
 508.00  9.0413E-006
 508.50  8.8395E-006
 509.00  8.6218E-006
 509.50  8.6541E-006
 510.00  8.6991E-006
 510.50  8.6827E-006
 511.00  8.7617E-006
 511.50  8.8675E-006
 512.00  8.9763E-006
 512.50  9.1437E-006
 513.00  9.3568E-006
 513.50  9.1823E-006
 514.00  8.8457E-006
 514.50  8.5451E-006
 515.00  8.1711E-006
 515.50  7.9031E-006
 516.00  8.0431E-006
 516.50  8.1140E-006
 517.00  8.1590E-006
 517.50  8.2184E-006
 518.00  8.2801E-006
 518.50  8.1966E-006
 519.00  7.9837E-006
 519.50  7.9950E-006
 520.00  8.1178E-006
 520.50  7.9825E-006
 521.00  7.9996E-006
 521.50  8.0557E-006
 522.00  7.9649E-006
 522.50  7.9477E-006
 523.00  8.0536E-006
 523.50  8.0085E-006
 524.00  7.8140E-006
 524.50  7.4993E-006
 525.00  7.0500E-006
 525.50  6.6799E-006
 526.00  6.6562E-006
 526.50  6.7777E-006
 527.00  6.9918E-006
 527.50  7.2967E-006
 528.00  7.4888E-006
 528.50  7.5685E-006
 529.00  7.7245E-006
 529.50  7.8062E-006
 530.00  7.8107E-006
 530.50  7.7861E-006
 531.00  7.7884E-006
 531.50  7.8052E-006
 532.00  7.7247E-006
 532.50  7.6505E-006
 533.00  7.6859E-006
 533.50  7.6667E-006
 534.00  7.5803E-006
 534.50  7.5840E-006
 535.00  7.5564E-006
 535.50  7.6133E-006
 536.00  7.6252E-006
 536.50  7.6859E-006
 537.00  7.6384E-006
 537.50  7.5783E-006
 538.00  7.5657E-006
 538.50  7.3602E-006
 539.00  7.1353E-006
 539.50  6.9597E-006
 540.00  6.5562E-006
 540.50  6.3386E-006
 541.00  6.2385E-006
 541.50  6.4151E-006
 542.00  6.5532E-006
 542.50  6.5706E-006
 543.00  6.6870E-006
 543.50  6.6935E-006
 544.00  6.6325E-006
 544.50  6.6109E-006
 545.00  6.5717E-006
 545.50  6.5436E-006
 546.00  6.7487E-006
 546.50  6.9324E-006
 547.00  7.0748E-006
 547.50  7.3449E-006
 548.00  7.3848E-006
 548.50  7.0592E-006
 549.00  6.9840E-006
 549.50  7.0615E-006
 550.00  7.3466E-006
 550.50  8.0733E-006
 551.00  8.5373E-006
 551.50  8.4738E-006
 552.00  8.3082E-006
 552.50  8.1434E-006
 553.00  8.0131E-006
 553.50  8.1632E-006
 554.00  8.6459E-006
 554.50  8.6967E-006
 555.00  8.5350E-006
 555.50  8.3813E-006
 556.00  7.8060E-006
 556.50  7.2258E-006
 557.00  6.6174E-006
 557.50  6.1886E-006
 558.00  5.9891E-006
 558.50  6.0177E-006
 559.00  5.9669E-006
 559.50  6.0861E-006
 560.00  6.1418E-006
 560.50  6.1633E-006
 561.00  6.2108E-006
 561.50  6.2179E-006
 562.00  6.0132E-006
 562.50  5.4563E-006
 563.00  5.1253E-006
 563.50  4.6294E-006
 564.00  4.4091E-006
 564.50  4.4616E-006
 565.00  4.9079E-006
 565.50  5.4583E-006
 566.00  6.0627E-006
 566.50  6.2841E-006
 567.00  6.2418E-006
 567.50  6.2426E-006
 568.00  6.2703E-006
 568.50  5.9872E-006
 569.00  6.0392E-006
 569.50  5.5727E-006
 570.00  5.0725E-006
 570.50  4.4769E-006
 571.00  4.3773E-006
 571.50  4.4232E-006
 572.00  4.2987E-006
 572.50  4.3882E-006
 573.00  4.6833E-006
 573.50  5.0538E-006
 574.00  5.7662E-006
 574.50  6.4148E-006
 575.00  6.7698E-006
 575.50  7.0189E-006
 576.00  6.4502E-006
 576.50  6.3232E-006
 577.00  6.1746E-006
 577.50  5.5800E-006
 578.00  5.1635E-006
 578.50  4.8136E-006
 579.00  4.1490E-006
 579.50  3.9418E-006
 580.00  4.3202E-006
 580.50  4.6166E-006
 581.00  5.0226E-006
 581.50  5.7284E-006
 582.00  6.4921E-006
 582.50  7.4026E-006
 583.00  8.4414E-006
 583.50  9.3040E-006
 584.00  9.5564E-006
 584.50  8.8876E-006
 585.00  7.9696E-006
 585.50  7.2478E-006
 586.00  6.2584E-006
 586.50  6.2336E-006
 587.00  5.8758E-006
 587.50  5.4349E-006
 588.00  5.0173E-006
 588.50  4.8421E-006
 589.00  5.0143E-006
 589.50  5.7196E-006
 590.00  6.4246E-006
 590.50  7.0607E-006
 591.00  7.6331E-006
 591.50  8.2967E-006
 592.00  8.5976E-006
 592.50  9.0827E-006
 593.00  8.7306E-006
 593.50  8.4415E-006
 594.00  7.6499E-006
 594.50  6.8948E-006
 595.00  6.3850E-006
 595.50  6.3907E-006
 596.00  5.8425E-006
 596.50  5.1814E-006
 597.00  4.8085E-006
 597.50  3.9630E-006
 598.00  3.4453E-006
 598.50  3.2337E-006
 599.00  3.4513E-006
 599.50  3.3672E-006
 600.00  3.4559E-006
 600.50  3.5541E-006
 601.00  3.4460E-006
 601.50  3.0054E-006
 602.00  2.7735E-006
 602.50  2.6195E-006
 603.00  2.5318E-006
 603.50  2.6704E-006
 604.00  2.9510E-006
 604.50  2.7169E-006
 605.00  2.4826E-006
 605.50  2.2443E-006
 606.00  2.0788E-006
 606.50  2.2240E-006
 607.00  2.5498E-006
 607.50  2.8337E-006
 608.00  2.9880E-006
 608.50  3.0562E-006
 609.00  3.0474E-006
 609.50  3.1271E-006
 610.00  3.1048E-006
 610.50  2.7971E-006
 611.00  2.6313E-006
 611.50  2.8103E-006
 612.00  2.7205E-006
 612.50  3.0857E-006
 613.00  3.4087E-006
 613.50  3.4637E-006
 614.00  3.1974E-006
 614.50  2.9747E-006
 615.00  3.0080E-006
 615.50  3.1735E-006
 616.00  3.5304E-006
 616.50  3.8584E-006
 617.00  4.4007E-006
 617.50  4.9083E-006
 618.00  5.4623E-006
 618.50  6.1707E-006
 619.00  7.1165E-006
 619.50  7.1780E-006
 620.00  7.4593E-006
 620.50  7.2817E-006
 621.00  6.6650E-006
 621.50  6.3716E-006
 622.00  5.9042E-006
 622.50  5.8171E-006
 623.00  6.3905E-006
 623.50  6.6171E-006
 624.00  6.2981E-006
 624.50  5.8528E-006
 625.00  5.0718E-006
 625.50  3.9471E-006
 626.00  3.7076E-006
 626.50  3.2638E-006
 627.00  2.7443E-006
 627.50  2.6340E-006
 628.00  2.5894E-006
 628.50  2.8065E-006
 629.00  3.2918E-006
 629.50  4.2361E-006
 630.00  4.6425E-006
 630.50  4.5907E-006
 631.00  4.6778E-006
 631.50  4.9864E-006
 632.00  5.3747E-006
 632.50  5.8203E-006
 633.00  6.3063E-006
 633.50  6.9844E-006
 634.00  7.2835E-006
 634.50  6.9220E-006
 635.00  6.8985E-006
 635.50  7.2384E-006
 636.00  6.6069E-006
 636.50  6.6210E-006
 637.00  6.6120E-006
 637.50  6.2775E-006
 638.00  5.6111E-006
 638.50  4.7289E-006
 639.00  4.1162E-006
 639.50  4.2197E-006
 640.00  4.3378E-006
 640.50  4.7955E-006
 641.00  5.3835E-006
 641.50  5.6559E-006
 642.00  5.6397E-006
 642.50  5.8244E-006
 643.00  6.9039E-006
 643.50  8.6838E-006
 644.00  9.8676E-006
 644.50  1.0082E-005
 645.00  1.0245E-005
 645.50  9.4487E-006
 646.00  8.2610E-006
 646.50  7.6263E-006
 647.00  7.2386E-006
 647.50  6.6582E-006
 648.00  6.3073E-006
 648.50  6.1625E-006
 649.00  5.9589E-006
 649.50  5.9921E-006
 650.00  5.4404E-006
 650.50  5.9529E-006
 651.00  6.7814E-006
 651.50  8.0341E-006
