" File: 160128_ReferenceSpectra\23.IRR
" RAD->  Wave:366.44nm  Pix:434  Val:  0.000  Time:750ms  Avg:5  Sm:1  Sg:1  Tc:off  SNAP  Xt:1  Ch:1  Xtrig wnmcal >RAD-IS6.CAL
 180.00  0.0000E+000
 180.50  0.0000E+000
 181.00  0.0000E+000
 181.50  0.0000E+000
 182.00  0.0000E+000
 182.50  0.0000E+000
 183.00  0.0000E+000
 183.50  0.0000E+000
 184.00  0.0000E+000
 184.50  0.0000E+000
 185.00  0.0000E+000
 185.50  0.0000E+000
 186.00  0.0000E+000
 186.50  0.0000E+000
 187.00  0.0000E+000
 187.50  0.0000E+000
 188.00  0.0000E+000
 188.50  0.0000E+000
 189.00  0.0000E+000
 189.50  0.0000E+000
 190.00  0.0000E+000
 190.50  0.0000E+000
 191.00  0.0000E+000
 191.50  0.0000E+000
 192.00  0.0000E+000
 192.50  0.0000E+000
 193.00  0.0000E+000
 193.50  0.0000E+000
 194.00  0.0000E+000
 194.50  0.0000E+000
 195.00  0.0000E+000
 195.50  0.0000E+000
 196.00  0.0000E+000
 196.50  0.0000E+000
 197.00  0.0000E+000
 197.50  0.0000E+000
 198.00  0.0000E+000
 198.50  0.0000E+000
 199.00  0.0000E+000
 199.50  0.0000E+000
 200.00  0.0000E+000
 200.50  0.0000E+000
 201.00  0.0000E+000
 201.50  0.0000E+000
 202.00  0.0000E+000
 202.50  0.0000E+000
 203.00  0.0000E+000
 203.50  0.0000E+000
 204.00  0.0000E+000
 204.50  0.0000E+000
 205.00  0.0000E+000
 205.50  0.0000E+000
 206.00  0.0000E+000
 206.50  0.0000E+000
 207.00  0.0000E+000
 207.50  0.0000E+000
 208.00  0.0000E+000
 208.50  0.0000E+000
 209.00  0.0000E+000
 209.50  0.0000E+000
 210.00  0.0000E+000
 210.50  0.0000E+000
 211.00  0.0000E+000
 211.50  0.0000E+000
 212.00  0.0000E+000
 212.50  0.0000E+000
 213.00  0.0000E+000
 213.50  0.0000E+000
 214.00  0.0000E+000
 214.50  0.0000E+000
 215.00  0.0000E+000
 215.50  0.0000E+000
 216.00  0.0000E+000
 216.50  0.0000E+000
 217.00  0.0000E+000
 217.50  0.0000E+000
 218.00  0.0000E+000
 218.50  0.0000E+000
 219.00  0.0000E+000
 219.50  0.0000E+000
 220.00  0.0000E+000
 220.50  0.0000E+000
 221.00  0.0000E+000
 221.50  0.0000E+000
 222.00  0.0000E+000
 222.50  0.0000E+000
 223.00  0.0000E+000
 223.50  0.0000E+000
 224.00  0.0000E+000
 224.50  0.0000E+000
 225.00  0.0000E+000
 225.50  0.0000E+000
 226.00  0.0000E+000
 226.50  0.0000E+000
 227.00  0.0000E+000
 227.50  0.0000E+000
 228.00  0.0000E+000
 228.50  0.0000E+000
 229.00  0.0000E+000
 229.50  0.0000E+000
 230.00  0.0000E+000
 230.50  0.0000E+000
 231.00  0.0000E+000
 231.50  0.0000E+000
 232.00  0.0000E+000
 232.50  0.0000E+000
 233.00  0.0000E+000
 233.50  0.0000E+000
 234.00  0.0000E+000
 234.50  0.0000E+000
 235.00  0.0000E+000
 235.50  0.0000E+000
 236.00  0.0000E+000
 236.50  0.0000E+000
 237.00  0.0000E+000
 237.50  0.0000E+000
 238.00  0.0000E+000
 238.50  0.0000E+000
 239.00  0.0000E+000
 239.50  0.0000E+000
 240.00  0.0000E+000
 240.50  0.0000E+000
 241.00  0.0000E+000
 241.50  0.0000E+000
 242.00  0.0000E+000
 242.50  0.0000E+000
 243.00  0.0000E+000
 243.50  0.0000E+000
 244.00  0.0000E+000
 244.50  0.0000E+000
 245.00  0.0000E+000
 245.50  0.0000E+000
 246.00  0.0000E+000
 246.50  0.0000E+000
 247.00  0.0000E+000
 247.50  0.0000E+000
 248.00  0.0000E+000
 248.50  0.0000E+000
 249.00  0.0000E+000
 249.50  0.0000E+000
 250.00  0.0000E+000
 250.50  0.0000E+000
 251.00  0.0000E+000
 251.50  0.0000E+000
 252.00  0.0000E+000
 252.50  0.0000E+000
 253.00  0.0000E+000
 253.50  0.0000E+000
 254.00  0.0000E+000
 254.50  0.0000E+000
 255.00  0.0000E+000
 255.50  0.0000E+000
 256.00  0.0000E+000
 256.50  0.0000E+000
 257.00  0.0000E+000
 257.50  0.0000E+000
 258.00  0.0000E+000
 258.50  0.0000E+000
 259.00  0.0000E+000
 259.50  0.0000E+000
 260.00  0.0000E+000
 260.50  0.0000E+000
 261.00  0.0000E+000
 261.50  0.0000E+000
 262.00  0.0000E+000
 262.50  0.0000E+000
 263.00  0.0000E+000
 263.50  0.0000E+000
 264.00  0.0000E+000
 264.50  0.0000E+000
 265.00  0.0000E+000
 265.50  0.0000E+000
 266.00  0.0000E+000
 266.50  0.0000E+000
 267.00  0.0000E+000
 267.50  0.0000E+000
 268.00  0.0000E+000
 268.50  0.0000E+000
 269.00  0.0000E+000
 269.50  0.0000E+000
 270.00  0.0000E+000
 270.50  0.0000E+000
 271.00  0.0000E+000
 271.50  0.0000E+000
 272.00  0.0000E+000
 272.50  0.0000E+000
 273.00  0.0000E+000
 273.50  0.0000E+000
 274.00  0.0000E+000
 274.50  0.0000E+000
 275.00  0.0000E+000
 275.50  0.0000E+000
 276.00  0.0000E+000
 276.50  0.0000E+000
 277.00  0.0000E+000
 277.50  0.0000E+000
 278.00  0.0000E+000
 278.50  0.0000E+000
 279.00  0.0000E+000
 279.50  0.0000E+000
 280.00  0.0000E+000
 280.50  0.0000E+000
 281.00  0.0000E+000
 281.50  0.0000E+000
 282.00  0.0000E+000
 282.50  0.0000E+000
 283.00  0.0000E+000
 283.50  0.0000E+000
 284.00  0.0000E+000
 284.50  0.0000E+000
 285.00  0.0000E+000
 285.50  0.0000E+000
 286.00  0.0000E+000
 286.50  0.0000E+000
 287.00  0.0000E+000
 287.50  0.0000E+000
 288.00  0.0000E+000
 288.50  0.0000E+000
 289.00  0.0000E+000
 289.50  0.0000E+000
 290.00  0.0000E+000
 290.50  0.0000E+000
 291.00  0.0000E+000
 291.50  0.0000E+000
 292.00  0.0000E+000
 292.50  0.0000E+000
 293.00  0.0000E+000
 293.50  0.0000E+000
 294.00  0.0000E+000
 294.50  0.0000E+000
 295.00  0.0000E+000
 295.50  0.0000E+000
 296.00  0.0000E+000
 296.50  0.0000E+000
 297.00  0.0000E+000
 297.50  0.0000E+000
 298.00  0.0000E+000
 298.50  0.0000E+000
 299.00  0.0000E+000
 299.50  0.0000E+000
 300.00  0.0000E+000
 300.50  0.0000E+000
 301.00  0.0000E+000
 301.50  0.0000E+000
 302.00  0.0000E+000
 302.50  0.0000E+000
 303.00  0.0000E+000
 303.50  0.0000E+000
 304.00  0.0000E+000
 304.50  0.0000E+000
 305.00  0.0000E+000
 305.50  0.0000E+000
 306.00  0.0000E+000
 306.50  0.0000E+000
 307.00  0.0000E+000
 307.50  0.0000E+000
 308.00  0.0000E+000
 308.50  0.0000E+000
 309.00  0.0000E+000
 309.50  0.0000E+000
 310.00  0.0000E+000
 310.50  0.0000E+000
 311.00  0.0000E+000
 311.50  0.0000E+000
 312.00  0.0000E+000
 312.50  0.0000E+000
 313.00  0.0000E+000
 313.50  0.0000E+000
 314.00  0.0000E+000
 314.50  0.0000E+000
 315.00  0.0000E+000
 315.50  0.0000E+000
 316.00  0.0000E+000
 316.50  0.0000E+000
 317.00  0.0000E+000
 317.50  0.0000E+000
 318.00  0.0000E+000
 318.50  0.0000E+000
 319.00  0.0000E+000
 319.50  0.0000E+000
 320.00  0.0000E+000
 320.50  0.0000E+000
 321.00  0.0000E+000
 321.50  0.0000E+000
 322.00  0.0000E+000
 322.50  0.0000E+000
 323.00  0.0000E+000
 323.50  0.0000E+000
 324.00  0.0000E+000
 324.50  0.0000E+000
 325.00  0.0000E+000
 325.50  0.0000E+000
 326.00  0.0000E+000
 326.50  0.0000E+000
 327.00  0.0000E+000
 327.50  0.0000E+000
 328.00  0.0000E+000
 328.50  0.0000E+000
 329.00  0.0000E+000
 329.50  0.0000E+000
 330.00  0.0000E+000
 330.50  0.0000E+000
 331.00  0.0000E+000
 331.50  0.0000E+000
 332.00  0.0000E+000
 332.50  0.0000E+000
 333.00  0.0000E+000
 333.50  0.0000E+000
 334.00  0.0000E+000
 334.50  0.0000E+000
 335.00  0.0000E+000
 335.50  0.0000E+000
 336.00  0.0000E+000
 336.50  0.0000E+000
 337.00  0.0000E+000
 337.50  0.0000E+000
 338.00  0.0000E+000
 338.50  0.0000E+000
 339.00  0.0000E+000
 339.50  0.0000E+000
 340.00  0.0000E+000
 340.50  0.0000E+000
 341.00  0.0000E+000
 341.50  0.0000E+000
 342.00  0.0000E+000
 342.50  0.0000E+000
 343.00  0.0000E+000
 343.50  0.0000E+000
 344.00  0.0000E+000
 344.50  0.0000E+000
 345.00  0.0000E+000
 345.50  0.0000E+000
 346.00  0.0000E+000
 346.50  0.0000E+000
 347.00  0.0000E+000
 347.50  0.0000E+000
 348.00  0.0000E+000
 348.50  0.0000E+000
 349.00  0.0000E+000
 349.50  0.0000E+000
 350.00  0.0000E+000
 350.50  0.0000E+000
 351.00  0.0000E+000
 351.50  0.0000E+000
 352.00  0.0000E+000
 352.50  0.0000E+000
 353.00  0.0000E+000
 353.50  0.0000E+000
 354.00  0.0000E+000
 354.50  0.0000E+000
 355.00  0.0000E+000
 355.50  0.0000E+000
 356.00  0.0000E+000
 356.50  0.0000E+000
 357.00  0.0000E+000
 357.50  0.0000E+000
 358.00  0.0000E+000
 358.50  0.0000E+000
 359.00  0.0000E+000
 359.50  0.0000E+000
 360.00  0.0000E+000
 360.50  0.0000E+000
 361.00  2.6779E-009
 361.50  7.1103E-009
 362.00  2.0787E-008
 362.50  2.6834E-008
 363.00  4.6041E-008
 363.50  6.1480E-008
 364.00  6.9351E-008
 364.50  7.8347E-008
 365.00  8.3474E-008
 365.50  7.8233E-008
 366.00  8.7430E-008
 366.50  9.5793E-008
 367.00  9.4766E-008
 367.50  8.1514E-008
 368.00  6.3931E-008
 368.50  4.8011E-008
 369.00  4.0115E-008
 369.50  3.8237E-008
 370.00  5.0903E-008
 370.50  4.3530E-008
 371.00  3.3107E-008
 371.50  2.0336E-008
 372.00  8.3576E-009
 372.50  0.0000E+000
 373.00  0.0000E+000
 373.50  0.0000E+000
 374.00  0.0000E+000
 374.50  0.0000E+000
 375.00  0.0000E+000
 375.50  0.0000E+000
 376.00  0.0000E+000
 376.50  0.0000E+000
 377.00  0.0000E+000
 377.50  0.0000E+000
 378.00  0.0000E+000
 378.50  0.0000E+000
 379.00  0.0000E+000
 379.50  0.0000E+000
 380.00  0.0000E+000
 380.50  0.0000E+000
 381.00  0.0000E+000
 381.50  0.0000E+000
 382.00  0.0000E+000
 382.50  0.0000E+000
 383.00  0.0000E+000
 383.50  0.0000E+000
 384.00  0.0000E+000
 384.50  0.0000E+000
 385.00  0.0000E+000
 385.50  4.1094E-009
 386.00  1.5893E-008
 386.50  2.0459E-008
 387.00  3.2196E-008
 387.50  3.0629E-008
 388.00  2.2292E-008
 388.50  9.8430E-009
 389.00  8.6925E-009
 389.50  9.3354E-009
 390.00  9.6740E-009
 390.50  2.1387E-008
 391.00  3.5218E-008
 391.50  1.7411E-008
 392.00  2.8160E-008
 392.50  5.2822E-008
 393.00  5.9770E-008
 393.50  3.8910E-008
 394.00  5.7313E-008
 394.50  6.4111E-008
 395.00  3.2636E-008
 395.50  6.2202E-008
 396.00  4.2315E-008
 396.50  1.0243E-008
 397.00  0.0000E+000
 397.50  0.0000E+000
 398.00  0.0000E+000
 398.50  0.0000E+000
 399.00  0.0000E+000
 399.50  0.0000E+000
 400.00  0.0000E+000
 400.50  0.0000E+000
 401.00  0.0000E+000
 401.50  0.0000E+000
 402.00  0.0000E+000
 402.50  0.0000E+000
 403.00  0.0000E+000
 403.50  0.0000E+000
 404.00  0.0000E+000
 404.50  0.0000E+000
 405.00  0.0000E+000
 405.50  0.0000E+000
 406.00  0.0000E+000
 406.50  0.0000E+000
 407.00  0.0000E+000
 407.50  0.0000E+000
 408.00  0.0000E+000
 408.50  0.0000E+000
 409.00  0.0000E+000
 409.50  0.0000E+000
 410.00  0.0000E+000
 410.50  1.0127E-008
 411.00  4.1937E-008
 411.50  5.7429E-008
 412.00  5.0577E-008
 412.50  3.3130E-008
 413.00  4.6001E-008
 413.50  1.0385E-008
 414.00  0.0000E+000
 414.50  0.0000E+000
 415.00  0.0000E+000
 415.50  0.0000E+000
 416.00  0.0000E+000
 416.50  0.0000E+000
 417.00  0.0000E+000
 417.50  0.0000E+000
 418.00  1.9285E-008
 418.50  3.1683E-008
 419.00  3.8974E-008
 419.50  3.6478E-008
 420.00  2.1771E-008
 420.50  2.7766E-008
 421.00  2.4614E-008
 421.50  2.9514E-009
 422.00  0.0000E+000
 422.50  0.0000E+000
 423.00  9.1522E-010
 423.50  1.3878E-008
 424.00  5.0455E-008
 424.50  7.9244E-008
 425.00  8.8072E-008
 425.50  8.9143E-008
 426.00  7.7300E-008
 426.50  6.5472E-008
 427.00  5.4989E-008
 427.50  6.1199E-008
 428.00  1.5023E-008
 428.50  7.8783E-010
 429.00  0.0000E+000
 429.50  0.0000E+000
 430.00  5.9951E-009
 430.50  3.7973E-008
 431.00  3.2234E-008
 431.50  1.0440E-008
 432.00  0.0000E+000
 432.50  0.0000E+000
 433.00  0.0000E+000
 433.50  0.0000E+000
 434.00  0.0000E+000
 434.50  0.0000E+000
 435.00  0.0000E+000
 435.50  0.0000E+000
 436.00  0.0000E+000
 436.50  0.0000E+000
 437.00  0.0000E+000
 437.50  2.9650E-009
 438.00  4.5917E-009
 438.50  2.9801E-010
 439.00  0.0000E+000
 439.50  0.0000E+000
 440.00  6.0031E-009
 440.50  0.0000E+000
 441.00  0.0000E+000
 441.50  0.0000E+000
 442.00  0.0000E+000
 442.50  0.0000E+000
 443.00  3.1199E-009
 443.50  1.0546E-008
 444.00  3.0588E-009
 444.50  0.0000E+000
 445.00  0.0000E+000
 445.50  0.0000E+000
 446.00  6.8073E-010
 446.50  9.0819E-009
 447.00  2.8910E-008
 447.50  4.9215E-008
 448.00  5.7046E-008
 448.50  3.9132E-008
 449.00  2.4260E-008
 449.50  7.3415E-009
 450.00  0.0000E+000
 450.50  9.8810E-010
 451.00  6.9164E-009
 451.50  7.6841E-009
 452.00  5.5350E-009
 452.50  1.6468E-009
 453.00  0.0000E+000
 453.50  0.0000E+000
 454.00  1.0151E-008
 454.50  2.1173E-009
 455.00  0.0000E+000
 455.50  0.0000E+000
 456.00  0.0000E+000
 456.50  0.0000E+000
 457.00  2.1161E-011
 457.50  4.9534E-009
 458.00  1.0027E-008
 458.50  1.4113E-008
 459.00  1.7087E-008
 459.50  1.9458E-008
 460.00  1.1568E-008
 460.50  4.9100E-009
 461.00  5.0114E-009
 461.50  2.4437E-009
 462.00  9.6473E-009
 462.50  2.2046E-008
 463.00  2.5975E-008
 463.50  2.3275E-008
 464.00  8.7401E-009
 464.50  1.3920E-009
 465.00  0.0000E+000
 465.50  0.0000E+000
 466.00  6.5308E-009
 466.50  2.1330E-008
 467.00  3.2658E-008
 467.50  4.1931E-008
 468.00  4.9238E-008
 468.50  5.5757E-008
 469.00  5.8837E-008
 469.50  5.6793E-008
 470.00  6.1012E-008
 470.50  6.3048E-008
 471.00  5.9294E-008
 471.50  3.6825E-008
 472.00  1.9744E-008
 472.50  8.5778E-009
 473.00  1.0483E-009
 473.50  0.0000E+000
 474.00  0.0000E+000
 474.50  0.0000E+000
 475.00  0.0000E+000
 475.50  0.0000E+000
 476.00  0.0000E+000
 476.50  0.0000E+000
 477.00  0.0000E+000
 477.50  0.0000E+000
 478.00  0.0000E+000
 478.50  0.0000E+000
 479.00  0.0000E+000
 479.50  1.9783E-009
 480.00  1.3942E-008
 480.50  1.2534E-008
 481.00  1.2808E-008
 481.50  3.1457E-008
 482.00  2.0652E-008
 482.50  3.0202E-009
 483.00  0.0000E+000
 483.50  0.0000E+000
 484.00  0.0000E+000
 484.50  0.0000E+000
 485.00  0.0000E+000
 485.50  0.0000E+000
 486.00  0.0000E+000
 486.50  0.0000E+000
 487.00  0.0000E+000
 487.50  0.0000E+000
 488.00  0.0000E+000
 488.50  0.0000E+000
 489.00  0.0000E+000
 489.50  0.0000E+000
 490.00  0.0000E+000
 490.50  1.2026E-009
 491.00  1.0176E-008
 491.50  8.9871E-009
 492.00  6.8932E-010
 492.50  0.0000E+000
 493.00  0.0000E+000
 493.50  0.0000E+000
 494.00  0.0000E+000
 494.50  0.0000E+000
 495.00  0.0000E+000
 495.50  0.0000E+000
 496.00  0.0000E+000
 496.50  0.0000E+000
 497.00  0.0000E+000
 497.50  0.0000E+000
 498.00  0.0000E+000
 498.50  0.0000E+000
 499.00  0.0000E+000
 499.50  0.0000E+000
 500.00  0.0000E+000
 500.50  0.0000E+000
 501.00  2.7285E-009
 501.50  1.9276E-008
 502.00  3.3847E-008
 502.50  2.4351E-008
 503.00  1.0798E-008
 503.50  6.6596E-010
 504.00  0.0000E+000
 504.50  0.0000E+000
 505.00  0.0000E+000
 505.50  0.0000E+000
 506.00  0.0000E+000
 506.50  0.0000E+000
 507.00  0.0000E+000
 507.50  0.0000E+000
 508.00  0.0000E+000
 508.50  0.0000E+000
 509.00  4.9035E-009
 509.50  2.3940E-008
 510.00  4.7606E-008
 510.50  3.0404E-008
 511.00  1.8872E-008
 511.50  9.2942E-009
 512.00  1.6164E-009
 512.50  0.0000E+000
 513.00  0.0000E+000
 513.50  0.0000E+000
 514.00  0.0000E+000
 514.50  0.0000E+000
 515.00  0.0000E+000
 515.50  0.0000E+000
 516.00  0.0000E+000
 516.50  0.0000E+000
 517.00  0.0000E+000
 517.50  3.6362E-009
 518.00  9.0453E-009
 518.50  1.0984E-008
 519.00  1.1059E-009
 519.50  0.0000E+000
 520.00  0.0000E+000
 520.50  0.0000E+000
 521.00  0.0000E+000
 521.50  0.0000E+000
 522.00  0.0000E+000
 522.50  0.0000E+000
 523.00  0.0000E+000
 523.50  0.0000E+000
 524.00  0.0000E+000
 524.50  0.0000E+000
 525.00  0.0000E+000
 525.50  0.0000E+000
 526.00  0.0000E+000
 526.50  0.0000E+000
 527.00  0.0000E+000
 527.50  0.0000E+000
 528.00  0.0000E+000
 528.50  0.0000E+000
 529.00  2.2783E-010
 529.50  1.1107E-009
 530.00  1.4650E-010
 530.50  8.2990E-009
 531.00  1.8721E-008
 531.50  2.4641E-008
 532.00  2.9984E-008
 532.50  1.2052E-008
 533.00  5.1970E-011
 533.50  0.0000E+000
 534.00  0.0000E+000
 534.50  0.0000E+000
 535.00  0.0000E+000
 535.50  0.0000E+000
 536.00  0.0000E+000
 536.50  0.0000E+000
 537.00  0.0000E+000
 537.50  3.8322E-009
 538.00  6.0959E-009
 538.50  0.0000E+000
 539.00  1.6867E-009
 539.50  5.0469E-009
 540.00  1.1451E-009
 540.50  1.0886E-008
 541.00  1.9106E-008
 541.50  4.7093E-008
 542.00  3.2700E-008
 542.50  2.5245E-008
 543.00  1.3141E-008
 543.50  1.8289E-009
 544.00  0.0000E+000
 544.50  0.0000E+000
 545.00  0.0000E+000
 545.50  0.0000E+000
 546.00  0.0000E+000
 546.50  2.9948E-009
 547.00  3.4923E-008
 547.50  7.2469E-008
 548.00  8.8224E-008
 548.50  9.8307E-008
 549.00  1.0862E-007
 549.50  1.1123E-007
 550.00  1.3349E-007
 550.50  1.8014E-007
 551.00  1.2219E-007
 551.50  3.9859E-008
 552.00  7.1717E-010
 552.50  0.0000E+000
 553.00  0.0000E+000
 553.50  0.0000E+000
 554.00  0.0000E+000
 554.50  0.0000E+000
 555.00  0.0000E+000
 555.50  0.0000E+000
 556.00  0.0000E+000
 556.50  0.0000E+000
 557.00  0.0000E+000
 557.50  0.0000E+000
 558.00  0.0000E+000
 558.50  0.0000E+000
 559.00  0.0000E+000
 559.50  0.0000E+000
 560.00  0.0000E+000
 560.50  0.0000E+000
 561.00  0.0000E+000
 561.50  0.0000E+000
 562.00  0.0000E+000
 562.50  0.0000E+000
 563.00  0.0000E+000
 563.50  0.0000E+000
 564.00  0.0000E+000
 564.50  2.4371E-009
 565.00  1.8501E-008
 565.50  3.4130E-008
 566.00  4.7360E-008
 566.50  5.6910E-008
 567.00  3.3078E-008
 567.50  6.0599E-009
 568.00  0.0000E+000
 568.50  0.0000E+000
 569.00  0.0000E+000
 569.50  7.3416E-010
 570.00  1.3323E-008
 570.50  2.8086E-008
 571.00  9.1006E-008
 571.50  1.3662E-007
 572.00  9.8749E-008
 572.50  7.7267E-008
 573.00  5.9188E-008
 573.50  1.2779E-008
 574.00  2.4029E-008
 574.50  6.5306E-008
 575.00  8.4527E-008
 575.50  5.7412E-008
 576.00  3.4848E-008
 576.50  2.9275E-008
 577.00  1.0824E-008
 577.50  7.8433E-009
 578.00  2.9449E-008
 578.50  5.3819E-008
 579.00  8.1406E-008
 579.50  9.1205E-008
 580.00  1.0007E-007
 580.50  1.0633E-007
 581.00  1.2305E-007
 581.50  7.5069E-008
 582.00  7.7750E-008
 582.50  5.8527E-008
 583.00  5.7084E-008
 583.50  1.1869E-007
 584.00  1.5761E-007
 584.50  1.1461E-007
 585.00  7.1533E-008
 585.50  3.8295E-008
 586.00  4.1855E-009
 586.50  0.0000E+000
 587.00  6.3225E-010
 587.50  1.3324E-008
 588.00  2.3568E-009
 588.50  7.9714E-009
 589.00  4.1940E-010
 589.50  1.1772E-008
 590.00  1.1095E-008
 590.50  0.0000E+000
 591.00  0.0000E+000
 591.50  0.0000E+000
 592.00  0.0000E+000
 592.50  0.0000E+000
 593.00  0.0000E+000
 593.50  0.0000E+000
 594.00  0.0000E+000
 594.50  0.0000E+000
 595.00  0.0000E+000
 595.50  0.0000E+000
 596.00  0.0000E+000
 596.50  0.0000E+000
 597.00  0.0000E+000
 597.50  0.0000E+000
 598.00  0.0000E+000
 598.50  0.0000E+000
 599.00  0.0000E+000
 599.50  0.0000E+000
 600.00  0.0000E+000
 600.50  2.4946E-008
 601.00  7.7870E-008
 601.50  4.8607E-008
 602.00  4.2224E-008
 602.50  4.5668E-008
 603.00  1.4515E-008
 603.50  2.7626E-008
 604.00  6.6509E-008
 604.50  7.3957E-008
 605.00  8.1638E-008
 605.50  6.5207E-008
 606.00  6.9622E-008
 606.50  6.6042E-008
 607.00  6.2845E-008
 607.50  2.5111E-008
 608.00  6.8298E-010
 608.50  0.0000E+000
 609.00  0.0000E+000
 609.50  0.0000E+000
 610.00  0.0000E+000
 610.50  0.0000E+000
 611.00  0.0000E+000
 611.50  0.0000E+000
 612.00  0.0000E+000
 612.50  0.0000E+000
 613.00  1.2614E-009
 613.50  3.4057E-008
 614.00  6.4819E-008
 614.50  2.4861E-008
 615.00  3.7051E-009
 615.50  0.0000E+000
 616.00  0.0000E+000
 616.50  0.0000E+000
 617.00  0.0000E+000
 617.50  2.9166E-010
 618.00  3.1908E-008
 618.50  9.6101E-008
 619.00  1.5810E-007
 619.50  1.3604E-007
 620.00  9.9128E-008
 620.50  6.6884E-008
 621.00  1.5831E-008
 621.50  0.0000E+000
 622.00  0.0000E+000
 622.50  0.0000E+000
 623.00  0.0000E+000
 623.50  4.4925E-008
 624.00  6.9466E-008
 624.50  9.3872E-008
 625.00  1.3180E-007
 625.50  1.6658E-007
 626.00  1.3138E-007
 626.50  1.2139E-007
 627.00  1.2043E-007
 627.50  9.2359E-008
 628.00  4.0336E-008
 628.50  1.7006E-008
 629.00  3.2167E-008
 629.50  2.5477E-008
 630.00  4.8733E-008
 630.50  8.1435E-008
 631.00  1.4202E-007
 631.50  1.6047E-007
 632.00  1.4201E-007
 632.50  1.6039E-007
 633.00  1.7415E-007
 633.50  1.2313E-007
 634.00  8.6511E-008
 634.50  9.8951E-008
 635.00  9.6379E-008
 635.50  3.7133E-008
 636.00  5.4980E-008
 636.50  8.1278E-008
 637.00  8.6073E-008
 637.50  9.4420E-008
 638.00  1.5312E-007
 638.50  1.2730E-007
 639.00  1.0197E-007
 639.50  3.5766E-008
 640.00  1.8433E-008
 640.50  3.0026E-008
 641.00  4.1002E-008
 641.50  1.1800E-007
 642.00  1.9495E-007
 642.50  2.3672E-007
 643.00  2.6452E-007
 643.50  2.7743E-007
 644.00  2.2242E-007
 644.50  1.7322E-007
 645.00  1.3331E-007
 645.50  1.2466E-007
 646.00  1.0653E-007
 646.50  6.7064E-008
 647.00  2.2915E-008
 647.50  3.5918E-009
 648.00  0.0000E+000
 648.50  0.0000E+000
 649.00  0.0000E+000
 649.50  0.0000E+000
 650.00  0.0000E+000
 650.50  0.0000E+000
 651.00  0.0000E+000
 651.50  9.8957E-009
